Wavelength [nm] Intensity [W/(m²·nm)]
302.44 0.034982
305.77 0.000000
309.11 0.000000
312.44 0.000000
315.78 0.000000
319.11 0.000000
322.45 0.000000
325.79 0.000000
329.13 0.000000
332.47 0.000000
335.81 0.000000
339.15 0.000000
342.49 0.000000
345.83 0.000000
349.17 137.562774
352.52 144.470358
355.86 147.076535
359.20 152.141030
362.55 165.801578
365.89 181.790090
369.24 188.835703
372.58 189.020835
375.93 191.821560
379.28 191.531170
382.62 184.760147
385.97 185.951272
389.32 195.884872
392.67 204.431060
396.02 228.360676
399.37 274.460161
402.71 312.130349
406.06 328.374819
409.41 339.811326
412.76 351.099278
416.12 357.506256
419.47 358.497469
422.82 355.876890
426.17 346.809424
429.52 343.374697
432.87 356.346714
436.23 377.985022
439.58 398.849332
442.93 418.822571
446.28 439.257111
449.64 454.628501
452.99 463.588265
456.34 468.888339
459.70 474.738845
463.05 476.169407
466.41 475.123511
469.76 475.805820
473.11 479.492354
476.47 485.108837
479.82 487.145606
483.18 479.401675
486.53 471.309383
489.89 472.837715
493.24 479.667924
496.60 480.350482
499.95 476.263217
503.31 473.879531
506.66 475.457994
510.02 474.241391
513.37 465.894594
516.73 458.526435
520.08 460.511437
523.44 466.843544
526.79 472.185379
530.15 476.431385
533.50 479.210046
536.86 477.654964
540.21 475.470013
543.57 474.952471
546.92 476.387632
550.28 477.092656
553.63 475.484733
556.99 471.086103
560.34 466.654034
563.69 463.027462
567.05 458.290693
570.40 454.562604
573.76 452.509138
577.11 453.666361
580.46 457.003206
583.81 456.402297
587.17 448.117600
590.52 440.947648
593.87 441.243418
597.22 443.864870
600.57 447.357960
603.92 450.093920
607.28 450.602979
610.63 448.688304
613.98 446.293398
617.33 445.174237
620.68 443.650254
624.02 439.278104
627.37 433.829710
630.72 431.945708
634.07 434.676532
637.42 438.359338
640.76 439.748730
644.11 436.993569
647.46 431.891478
650.80 426.506986
654.15 421.794697
657.49 422.567092
660.84 430.220661
664.18 437.197088
667.53 439.338903
670.87 439.079762
674.21 437.829092
677.55 435.092616
680.89 425.473067
684.24 402.353006
687.58 380.125641
690.92 374.458313
694.25 382.568511
697.59 388.872326
700.93 393.010686
704.27 397.612887
707.61 400.944690
710.94 395.157932
714.28 372.208172
717.61 344.664057
720.95 327.988744
724.28 324.627185
727.61 328.768102
730.94 343.897853
734.27 362.692663
737.61 377.407396
740.94 387.574553
744.26 394.306709
747.59 396.202584
750.92 391.565792
754.25 366.794770
757.57 304.634131
760.90 244.177241
764.22 244.668574
767.55 297.359090
770.87 345.147808
774.19 367.796187
777.51 375.125982
780.83 375.318637
784.15 370.978379
787.47 363.519639
790.79 356.204724
794.10 351.716455
797.42 348.644648
800.73 346.068082
804.05 343.186433
807.36 335.363252
810.67 315.728420
813.98 289.551604
817.29 272.155195
820.60 269.109815
823.91 273.757511
827.22 279.516095
830.52 286.220189
833.83 296.218885
837.13 307.787695
840.43 316.359042
843.73 320.277534
847.03 318.888541
850.33 313.398211
853.63 310.140924
856.93 312.247223
860.22 314.872512
863.52 312.707114
866.81 310.013945
870.11 310.107066
873.40 310.710162
876.69 309.289155
879.98 306.898168
883.26 304.003810
886.55 299.390444
889.84 288.369189
893.12 266.006826
896.40 237.885167
899.68 219.554908
902.97 214.152526
906.24 210.904458
909.52 202.125640
912.80 195.951429
916.07 197.587399
919.35 203.963451
922.62 203.870490
925.89 185.182823
929.16 147.780069
932.43 108.452262
935.70 86.900557
938.96 84.151200
942.23 86.934130
945.49 88.478030
948.75 90.928018
952.01 95.674268
955.27 102.579666
958.53 112.366816
961.78 126.805631
965.04 146.175653
968.29 165.595063
971.54 178.139082
974.79 184.111696
978.04 190.607380
981.28 201.371884
984.53 213.697911
987.77 223.830138
991.01 230.343349
994.25 233.613130
997.49 234.090671
1000.73 232.703293
1003.97 230.706143
1007.20 229.658984
1010.43 229.286599
1013.66 229.222147
1016.89 228.870485
1020.12 228.038180
1023.35 226.846184
1026.57 225.450925
1029.79 224.230827
1033.01 222.811075
1036.23 221.367511
1039.45 219.591317
1042.66 217.875265
1045.88 216.339705
1049.09 214.441528
1052.30 212.421009
1055.51 0.000000
1058.71 0.000000
1061.92 0.000000
1065.12 0.000000
1068.32 0.000000
1071.52 0.000000
1074.72 0.000000
1077.91 0.000000
1081.11 0.000000
1084.30 0.000000
1087.49 0.000000
1090.68 0.000000
1093.86 0.000000
1097.05 0.000000
1100.23 0.000000
1103.41 0.000000
1106.59 0.000000
1109.77 0.000000
1112.94 0.000000
1116.11 0.000000
1119.28 0.000000
1122.45 0.000000
1125.62 0.000000
1128.78 0.000000
1131.94 0.000000
1135.11 0.000000
1138.26 0.000000
1141.42 0.000000
1144.57 0.000000
